# B_down (mT)	 U_down (V) 
600.0080	-0.2726	-0.2708
595.0160	-0.2734	-0.2712
590.0000	-0.2734	-0.2717
585.0388	-0.2737	-0.2735
580.0038	-0.2746	-0.2726
574.9880	-0.2751	-0.2721
570.0180	-0.2748	-0.2743
564.9900	-0.2757	-0.2741
560.0078	-0.2761	-0.2751
554.9936	-0.2763	-0.2753
550.0712	-0.2766	-0.2750
544.9430	-0.2769	-0.2760
539.9646	-0.2777	-0.2757
535.0800	-0.2787	-0.2771
529.9840	-0.2786	-0.2775
525.0050	-0.2788	-0.2770
520.0124	-0.2796	-0.2779
514.9148	-0.2801	-0.2785
510.0160	-0.2806	-0.2795
504.9724	-0.2812	-0.2802
499.9108	-0.2815	-0.2815
495.0020	-0.2821	-0.2801
490.0404	-0.2828	-0.2818
485.0068	-0.2833	-0.2817
480.0148	-0.2834	-0.2819
475.0644	-0.2839	-0.2829
470.0720	-0.2844	-0.2838
465.0488	-0.2851	-0.2826
460.0528	-0.2855	-0.2836
455.0712	-0.2859	-0.2841
450.0554	-0.2862	-0.2842
445.0270	-0.2865	-0.2858
439.9902	-0.2871	-0.2858
434.9514	-0.2873	-0.2867
430.0844	-0.2881	-0.2870
425.0196	-0.2881	-0.2867
419.9164	-0.2887	-0.2865
415.0064	-0.2900	-0.2878
409.9200	-0.2895	-0.2878
405.0300	-0.2902	-0.2886
399.9600	-0.2901	-0.2890
395.0802	-0.2913	-0.2900
390.0852	-0.2915	-0.2895
385.0918	-0.2916	-0.2898
379.9386	-0.2919	-0.2909
374.9856	-0.2939	-0.2918
370.0556	-0.2930	-0.2919
364.9242	-0.2931	-0.2916
359.9592	-0.2940	-0.2935
354.9912	-0.2939	-0.2924
350.0012	-0.2940	-0.2928
345.0190	-0.2947	-0.2940
340.0940	-0.2952	-0.2950
334.9712	-0.2959	-0.2943
330.0412	-0.2963	-0.2946
324.9000	-0.2961	-0.2929
319.9000	-0.2968	-0.2953
314.9060	-0.2965	-0.2953
309.9360	-0.2978	-0.2959
304.9670	-0.2977	-0.2962
300.0020	-0.2979	-0.2969
295.0220	-0.2981	-0.2972
289.9820	-0.2985	-0.2963
284.9490	-0.2989	-0.2977
279.9440	-0.2995	-0.2979
274.9360	-0.2998	-0.2987
269.9160	-0.2999	-0.2988
264.9030	-0.3003	-0.2995
259.9180	-0.3001	-0.2981
254.9190	-0.2997	-0.2988
250.0662	-0.3003	-0.2992
245.0096	-0.3006	-0.2992
239.9446	-0.3005	-0.2997
235.0840	-0.3011	-0.2987
230.0340	-0.3006	-0.2979
224.9888	-0.3012	-0.2989
219.9788	-0.3011	-0.2985
214.9718	-0.3012	-0.2995
209.9868	-0.3006	-0.2988
205.0030	-0.3012	-0.2989
200.0280	-0.3007	-0.2999
195.0482	-0.3007	-0.2994
190.0332	-0.3007	-0.3000
185.0134	-0.3008	-0.2984
179.9584	-0.3003	-0.2989
174.9082	-0.2996	-0.2992
170.0938	-0.2992	-0.2987
165.0752	-0.2987	-0.2963
160.0152	-0.2975	-0.2973
154.9568	-0.2982	-0.2958
149.9168	-0.2973	-0.2950
145.0774	-0.2964	-0.2941
140.0124	-0.2953	-0.2933
134.9486	-0.2943	-0.2922
129.9136	-0.2914	-0.2909
125.0800	-0.2905	-0.2889
120.0700	-0.2872	-0.2861
115.0600	-0.2843	-0.2834
109.9400	-0.2809	-0.2804
105.0248	-0.2766	-0.2763
99.9672	-0.2713	-0.2714
94.9122	-0.2653	-0.2645
90.0502	-0.2592	-0.2575
84.9852	-0.2515	-0.2509
79.9294	-0.2440	-0.2429
75.0766	-0.2359	-0.2350
70.0480	-0.2270	-0.2264
65.0230	-0.2178	-0.2171
59.9628	-0.2082	-0.2086
55.1004	-0.1995	-0.1991
50.0354	-0.1888	-0.1891
44.9704	-0.1778	-0.1783
40.1000	-0.1683	-0.1663
35.0250	-0.1575	-0.1564
29.9820	-0.1472	-0.1462
24.9470	-0.1364	-0.1360
19.9000	-0.1246	-0.1253
15.0520	-0.1139	-0.1141
9.9868	-0.1032	-0.1022
4.9168	-0.0912	-0.0903
0.0856	-0.0800	-0.0800
-4.9344	-0.0684	-0.0682
-9.9796	-0.0571	-0.0567
-15.0346	-0.0461	-0.0444
-20.0896	-0.0331	-0.0324
-24.9424	-0.0217	-0.0217
-29.9940	-0.0100	-0.0097
-35.0440	0.0033	0.0026
-39.9016	0.0149	0.0144
-44.9666	0.0270	0.0274
-50.0316	0.0386	0.0384
-55.0966	0.0516	0.0502
-59.9620	0.0630	0.0622
-65.0320	0.0735	0.0736
-70.0810	0.0847	0.0859
-74.9146	0.0960	0.0965
-79.9664	0.1069	0.1086
-85.0314	0.1193	0.1198
-89.9042	0.1294	0.1284
-94.9892	0.1405	0.1399
-100.0326	0.1508	0.1500
-105.0376	0.1600	0.1601
-110.0894	0.1697	0.1695
-114.9806	0.1780	0.1778
-120.0420	0.1859	0.1862
-125.0670	0.1938	0.1937
-129.8998	0.1998	0.1990
-134.9448	0.2049	0.2037
-139.9942	0.2084	0.2080
-145.0492	0.2118	0.2109
-149.9040	0.2156	0.2124
-154.9640	0.2173	0.2160
-160.0100	0.2180	0.2179
-165.0350	0.2200	0.2182
-170.0660	0.2199	0.2207
-174.9044	0.2204	0.2219
-179.9444	0.2229	0.2215
-184.9844	0.2230	0.2224
-190.0550	0.2233	0.2235
-194.9750	0.2240	0.2243
-200.0328	0.2250	0.2239
-204.9478	0.2252	0.2246
-209.9108	0.2255	0.2250
-214.9758	0.2261	0.2246
-220.0584	0.2261	0.2242
-224.9736	0.2264	0.2249
-230.0516	0.2270	0.2266
-235.0216	0.2268	0.2259
-240.0140	0.2267	0.2253
-245.0640	0.2257	0.2261
-249.9096	0.2262	0.2257
-254.9496	0.2264	0.2253
-259.9860	0.2274	0.2255
-265.0110	0.2272	0.2259
-270.0312	0.2260	0.2254
-275.0362	0.2261	0.2256
-280.0496	0.2266	0.2248
-285.0896	0.2255	0.2253
-289.9210	0.2254	0.2244
-294.9260	0.2255	0.2241
-299.9310	0.2248	0.2249
-304.9360	0.2240	0.2239
-309.9320	0.2244	0.2244
-315.0904	0.2238	0.2231
-320.0588	0.2238	0.2232
-325.0538	0.2239	0.2229
-330.0416	0.2224	0.2216
-335.0066	0.2212	0.2221
-339.9644	0.2214	0.2219
-345.0968	0.2219	0.2218
-350.0570	0.2215	0.2206
-355.0820	0.2207	0.2198
-360.0762	0.2223	0.2195
-364.9912	0.2203	0.2192
-369.9398	0.2190	0.2190
-374.9748	0.2190	0.2182
-379.9930	0.2185	0.2192
-384.9680	0.2191	0.2188
-389.9332	0.2175	0.2179
-395.0708	0.2176	0.2171
-399.9948	0.2174	0.2168
-405.0804	0.2175	0.2168
-409.9722	0.2164	0.2150
-415.0630	0.2160	0.2143
-419.9600	0.2150	0.2148
-425.0560	0.2154	0.2151
-429.9626	0.2150	0.2135
-435.0742	0.2152	0.2140
-439.9604	0.2141	0.2135
-445.0096	0.2145	0.2133
-450.0280	0.2139	0.2122
-455.0200	0.2144	0.2110
-460.0760	0.2131	0.2123
-464.9760	0.2125	0.2114
-470.0040	0.2116	0.2110
-474.9960	0.2125	0.2103
-480.0108	0.2116	0.2104
-485.0340	0.2095	0.2101
-490.0614	0.2096	0.2080
-495.0898	0.2099	0.2077
-500.0032	0.2088	0.2086
-505.0900	0.2095	0.2080
-510.0820	0.2080	0.2071
-515.0668	0.2074	0.2057
-519.9652	0.2069	0.2062
-525.0560	0.2068	0.2059
-529.9752	0.2050	0.2049
-535.0292	0.2055	0.2046
-539.9540	0.2059	0.2046
-545.0456	0.2039	0.2033
-549.9380	0.2037	0.2026
-555.0260	0.2031	0.2027
-559.9400	0.2027	0.2027
-564.9732	0.2022	0.2013
-569.9506	0.2020	0.2018
-575.0566	0.2019	0.2011
-580.0456	0.2009	0.2001
-585.0428	0.2012	0.2001
-590.0764	0.2000	0.1993
-595.0092	0.1992	0.1986
-600.0208	0.1991	0.1976
