# B_up (mT)	 U_up (V) 	 Bdown (mT) 	 U_down (V) 
-599.9600	-0.0459	600.0080	0.0496
-594.9676	-0.0577	595.0160	0.0486
-590.0110	-0.0583	590.0000	0.0492
-585.0048	-0.0590	585.0388	0.0492
-580.0792	-0.0590	580.0038	0.0493
-575.0386	-0.0591	574.9880	0.0493
-570.0542	-0.0585	570.0180	0.0490
-565.0082	-0.0580	564.9900	0.0495
-560.0576	-0.0577	560.0078	0.0504
-555.0638	-0.0579	554.9936	0.0507
-549.9424	-0.0581	550.0712	0.0501
-544.9612	-0.0577	544.9430	0.0493
-539.9436	-0.0575	539.9646	0.0497
-535.0710	-0.0572	535.0800	0.0502
-530.0030	-0.0567	529.9840	0.0498
-525.0824	-0.0562	525.0050	0.0502
-519.9692	-0.0561	520.0124	0.0504
-514.9634	-0.0558	514.9148	0.0504
-509.9444	-0.0559	510.0160	0.0505
-505.0668	-0.0558	504.9724	0.0503
-499.9818	-0.0554	499.9108	0.0502
-495.0470	-0.0554	495.0020	0.0502
-489.9104	-0.0549	490.0404	0.0505
-484.9496	-0.0547	485.0068	0.0503
-479.9692	-0.0545	480.0148	0.0499
-474.9720	-0.0544	475.0644	0.0503
-469.9460	-0.0539	470.0720	0.0507
-465.0960	-0.0532	465.0488	0.0511
-460.0656	-0.0531	460.0528	0.0513
-455.0424	-0.0530	455.0712	0.0505
-449.9964	-0.0525	450.0554	0.0507
-444.9420	-0.0522	445.0270	0.0511
-440.0700	-0.0517	439.9902	0.0509
-435.0000	-0.0516	434.9514	0.0511
-429.9520	-0.0517	430.0844	0.0516
-424.9080	-0.0512	425.0196	0.0517
-420.0258	-0.0510	419.9164	0.0515
-414.9454	-0.0511	415.0064	0.0517
-410.0460	-0.0510	409.9200	0.0510
-404.9500	-0.0510	405.0300	0.0506
-400.0450	-0.0507	399.9600	0.0507
-394.9440	-0.0507	395.0802	0.0507
-390.0440	-0.0501	390.0852	0.0492
-384.9436	-0.0498	385.0918	0.0499
-379.9886	-0.0498	379.9386	0.0499
-375.0308	-0.0498	374.9856	0.0498
-370.0408	-0.0496	370.0556	0.0513
-365.0544	-0.0496	364.9242	0.0515
-359.9116	-0.0497	359.9592	0.0514
-354.9636	-0.0497	354.9912	0.0519
-349.9936	-0.0494	350.0012	0.0520
-345.0224	-0.0490	345.0190	0.0522
-340.0424	-0.0489	340.0940	0.0516
-335.0648	-0.0490	334.9712	0.0508
-329.9064	-0.0490	330.0412	0.0497
-324.9432	-0.0489	324.9000	0.0493
-319.9632	-0.0488	319.9000	0.0492
-314.9800	-0.0486	314.9060	0.0485
-309.9800	-0.0490	309.9360	0.0475
-304.9832	-0.0491	304.9670	0.0467
-300.0032	-0.0489	300.0020	0.0466
-295.0240	-0.0490	295.0220	0.0477
-290.0490	-0.0489	289.9820	0.0483
-285.0636	-0.0489	284.9490	0.0485
-280.0236	-0.0484	279.9440	0.0487
-274.9900	-0.0481	274.9360	0.0489
-269.9900	-0.0478	269.9160	0.0497
-264.9940	-0.0477	264.9030	0.0500
-260.0190	-0.0473	259.9180	0.0507
-255.0360	-0.0476	254.9190	0.0504
-250.0110	-0.0475	250.0662	0.0509
-244.9852	-0.0475	245.0096	0.0504
-239.9552	-0.0470	239.9446	0.0497
-234.9236	-0.0465	235.0840	0.0506
-230.0852	-0.0464	230.0340	0.0503
-225.0482	-0.0454	224.9888	0.0501
-220.0332	-0.0448	219.9788	0.0505
-215.0158	-0.0442	214.9718	0.0507
-209.9808	-0.0439	209.9868	0.0503
-204.9464	-0.0442	205.0030	0.0515
-199.9164	-0.0449	200.0280	0.0511
-195.0892	-0.0450	195.0482	0.0515
-190.0792	-0.0444	190.0332	0.0514
-185.0668	-0.0445	185.0134	0.0516
-180.0268	-0.0444	179.9584	0.0513
-174.9856	-0.0441	174.9082	0.0511
-169.9306	-0.0436	170.0938	0.0508
-165.0802	-0.0432	165.0752	0.0508
-160.0852	-0.0429	160.0152	0.0513
-155.0884	-0.0424	154.9568	0.0503
-150.0484	-0.0422	149.9168	0.0505
-145.0086	-0.0415	145.0774	0.0503
-139.9736	-0.0412	140.0124	0.0498
-134.9382	-0.0407	134.9486	0.0493
-130.0950	-0.0399	129.9136	0.0495
-125.0500	-0.0394	125.0800	0.0489
-120.0350	-0.0390	120.0700	0.0480
-115.0200	-0.0386	115.0600	0.0478
-109.9350	-0.0378	109.9400	0.0469
-105.0534	-0.0360	105.0248	0.0459
-99.9348	-0.0353	99.9672	0.0449
-95.0196	-0.0351	94.9122	0.0438
-89.9686	-0.0336	90.0502	0.0426
-84.9236	-0.0323	84.9852	0.0418
-80.0584	-0.0309	79.9294	0.0405
-74.9884	-0.0295	75.0766	0.0390
-69.9272	-0.0279	70.0480	0.0375
-65.0696	-0.0266	65.0230	0.0358
-60.0264	-0.0253	59.9628	0.0348
-54.9864	-0.0238	55.1004	0.0329
-49.9338	-0.0221	50.0354	0.0314
-45.0810	-0.0204	44.9704	0.0298
-40.0180	-0.0183	40.1000	0.0285
-34.9530	-0.0164	35.0250	0.0269
-30.0944	-0.0147	29.9820	0.0253
-25.0344	-0.0129	24.9470	0.0238
-20.0010	-0.0112	19.9000	0.0222
-14.9760	-0.0095	15.0520	0.0204
-9.9244	-0.0071	9.9868	0.0181
-5.0668	-0.0056	4.9168	0.0153
0.0148	-0.0037	0.0856	0.0138
4.9012	-0.0021	-4.9344	0.0116
9.9300	-0.0001	-9.9796	0.0090
14.9300	0.0012	-15.0346	0.0069
19.9742	0.0029	-20.0896	0.0050
25.0392	0.0047	-24.9424	0.0034
29.9080	0.0072	-29.9940	0.0016
34.9830	0.0090	-35.0440	-0.0002
40.0388	0.0120	-39.9016	-0.0023
45.0838	0.0140	-44.9666	-0.0041
49.9450	0.0160	-50.0316	-0.0062
55.0200	0.0183	-55.0966	-0.0079
59.9004	0.0200	-59.9620	-0.0092
64.9904	0.0215	-65.0320	-0.0113
70.0692	0.0236	-70.0810	-0.0132
74.9364	0.0259	-74.9146	-0.0151
79.9908	0.0279	-79.9664	-0.0165
85.0308	0.0299	-85.0314	-0.0182
90.0864	0.0322	-89.9042	-0.0201
94.9536	0.0343	-94.9892	-0.0220
100.0140	0.0360	-100.0326	-0.0243
105.0640	0.0376	-105.0376	-0.0255
110.0948	0.0392	-110.0894	-0.0272
114.9044	0.0409	-114.9806	-0.0294
119.9364	0.0422	-120.0420	-0.0304
124.9964	0.0428	-125.0670	-0.0321
130.0608	0.0439	-129.8998	-0.0328
134.9280	0.0445	-134.9448	-0.0329
139.9840	0.0453	-139.9942	-0.0336
145.0190	0.0459	-145.0492	-0.0342
150.0720	0.0462	-149.9040	-0.0344
154.9488	0.0465	-154.9640	-0.0356
160.0198	0.0469	-160.0100	-0.0364
165.0748	0.0466	-165.0350	-0.0366
169.9372	0.0475	-170.0660	-0.0373
175.0222	0.0475	-174.9044	-0.0385
180.0896	0.0477	-179.9444	-0.0386
184.9184	0.0482	-184.9844	-0.0382
189.9610	0.0491	-190.0550	-0.0379
195.0360	0.0489	-194.9750	-0.0384
199.9044	0.0491	-200.0328	-0.0381
204.9644	0.0489	-204.9478	-0.0384
210.0112	0.0493	-209.9108	-0.0388
215.0162	0.0492	-214.9758	-0.0388
220.0272	0.0489	-220.0584	-0.0388
225.0572	0.0493	-224.9736	-0.0385
230.0848	0.0490	-230.0516	-0.0391
234.9040	0.0493	-235.0216	-0.0398
239.9250	0.0498	-240.0140	-0.0404
244.9500	0.0499	-245.0640	-0.0410
249.9770	0.0496	-249.9096	-0.0404
255.0120	0.0499	-254.9496	-0.0408
260.0450	0.0501	-259.9860	-0.0408
265.0700	0.0500	-265.0110	-0.0417
270.0990	0.0509	-270.0312	-0.0416
274.9422	0.0508	-275.0362	-0.0414
279.9872	0.0509	-280.0496	-0.0418
285.0322	0.0514	-285.0896	-0.0427
290.0748	0.0511	-289.9210	-0.0426
294.9036	0.0510	-294.9260	-0.0411
299.9324	0.0508	-299.9310	-0.0420
304.9524	0.0506	-304.9360	-0.0410
309.9706	0.0507	-309.9320	-0.0406
314.9756	0.0498	-315.0904	-0.0409
319.9806	0.0493	-320.0588	-0.0409
324.9856	0.0491	-325.0538	-0.0421
329.9894	0.0491	-330.0416	-0.0428
334.9844	0.0486	-335.0066	-0.0430
339.9788	0.0488	-339.9644	-0.0430
344.9688	0.0488	-345.0968	-0.0439
349.9504	0.0492	-350.0570	-0.0447
355.0672	0.0494	-355.0820	-0.0458
359.9928	0.0496	-360.0762	-0.0465
364.9478	0.0493	-364.9912	-0.0458
369.9036	0.0500	-369.9398	-0.0458
375.0620	0.0502	-374.9748	-0.0450
380.0190	0.0507	-379.9930	-0.0450
384.9640	0.0504	-384.9680	-0.0448
389.9080	0.0508	-389.9332	-0.0448
395.0456	0.0509	-395.0708	-0.0442
399.9868	0.0515	-399.9948	-0.0446
404.9318	0.0514	-405.0804	-0.0448
410.0704	0.0519	-409.9722	-0.0447
415.0004	0.0516	-415.0630	-0.0453
419.9248	0.0520	-419.9600	-0.0450
425.0312	0.0518	-425.0560	-0.0440
429.9460	0.0514	-429.9626	-0.0445
435.0680	0.0513	-435.0742	-0.0454
439.9840	0.0516	-439.9604	-0.0453
445.0800	0.0513	-445.0096	-0.0454
449.9680	0.0509	-450.0280	-0.0467
455.0328	0.0507	-455.0200	-0.0476
459.9072	0.0502	-460.0760	-0.0483
464.9824	0.0502	-464.9760	-0.0500
470.0498	0.0497	-470.0040	-0.0505
474.9148	0.0497	-474.9960	-0.0508
479.9296	0.0498	-480.0108	-0.0503
484.9060	0.0499	-485.0340	-0.0503
490.0636	0.0494	-490.0614	-0.0497
495.0244	0.0498	-495.0898	-0.0496
499.9852	0.0496	-500.0032	-0.0492
504.9460	0.0494	-505.0900	-0.0487
510.0712	0.0488	-510.0820	-0.0486
515.0008	0.0481	-515.0668	-0.0497
520.0750	0.0480	-519.9652	-0.0497
524.9576	0.0470	-525.0560	-0.0492
530.0228	0.0464	-529.9752	-0.0491
535.0740	0.0457	-535.0292	-0.0495
540.0636	0.0454	-539.9540	-0.0494
545.0280	0.0466	-545.0456	-0.0494
549.9420	0.0472	-549.9380	-0.0495
555.0128	0.0465	-555.0260	-0.0499
560.0584	0.0466	-559.9400	-0.0500
565.0280	0.0468	-564.9732	-0.0503
569.9672	0.0473	-569.9506	-0.0504
574.9154	0.0481	-575.0566	-0.0510
579.9696	0.0481	-580.0456	-0.0512
585.0164	0.0484	-585.0428	-0.0505
589.9378	0.0489	-590.0764	-0.0512
594.9272	0.0495	-595.0092	-0.0513
599.9320	0.0491	-600.0208	-0.0519
